 #
 #Single particle optical absorption spectrum
 # 
 # Omega   Probability
 # 
   0.00     0.3568
   0.01     0.3575
   0.02     0.3582
   0.03     0.3590
   0.04     0.3597
   0.05     0.3604
   0.06     0.3612
   0.07     0.3619
   0.08     0.3627
   0.09     0.3634
   0.10     0.3642
   0.11     0.3649
   0.12     0.3657
   0.13     0.3664
   0.14     0.3672
   0.15     0.3679
   0.16     0.3687
   0.17     0.3695
   0.18     0.3702
   0.19     0.3710
   0.20     0.3718
   0.21     0.3726
   0.22     0.3733
   0.23     0.3741
   0.24     0.3749
   0.25     0.3757
   0.26     0.3765
   0.27     0.3773
   0.28     0.3781
   0.29     0.3789
   0.30     0.3796
   0.31     0.3805
   0.32     0.3813
   0.33     0.3821
   0.34     0.3829
   0.35     0.3837
   0.36     0.3845
   0.37     0.3853
   0.38     0.3861
   0.39     0.3870
   0.40     0.3878
   0.41     0.3886
   0.42     0.3894
   0.43     0.3903
   0.44     0.3911
   0.45     0.3919
   0.46     0.3928
   0.47     0.3936
   0.48     0.3945
   0.49     0.3953
   0.50     0.3962
   0.51     0.3970
   0.52     0.3979
   0.53     0.3988
   0.54     0.3996
   0.55     0.4005
   0.56     0.4014
   0.57     0.4022
   0.58     0.4031
   0.59     0.4040
   0.60     0.4049
   0.61     0.4058
   0.62     0.4066
   0.63     0.4075
   0.64     0.4084
   0.65     0.4093
   0.66     0.4102
   0.67     0.4111
   0.68     0.4120
   0.69     0.4129
   0.70     0.4139
   0.71     0.4148
   0.72     0.4157
   0.73     0.4166
   0.74     0.4175
   0.75     0.4185
   0.76     0.4194
   0.77     0.4203
   0.78     0.4213
   0.79     0.4222
   0.80     0.4232
   0.81     0.4241
   0.82     0.4251
   0.83     0.4260
   0.84     0.4270
   0.85     0.4279
   0.86     0.4289
   0.87     0.4299
   0.88     0.4308
   0.89     0.4318
   0.90     0.4328
   0.91     0.4338
   0.92     0.4348
   0.93     0.4357
   0.94     0.4367
   0.95     0.4377
   0.96     0.4387
   0.97     0.4397
   0.98     0.4407
   0.99     0.4417
   1.00     0.4428
   1.01     0.4438
   1.02     0.4448
   1.03     0.4458
   1.04     0.4469
   1.05     0.4479
   1.06     0.4489
   1.07     0.4500
   1.08     0.4510
   1.09     0.4520
   1.10     0.4531
   1.11     0.4541
   1.12     0.4552
   1.13     0.4563
   1.14     0.4573
   1.15     0.4584
   1.16     0.4595
   1.17     0.4606
   1.18     0.4616
   1.19     0.4627
   1.20     0.4638
   1.21     0.4649
   1.22     0.4660
   1.23     0.4671
   1.24     0.4682
   1.25     0.4693
   1.26     0.4704
   1.27     0.4715
   1.28     0.4727
   1.29     0.4738
   1.30     0.4749
   1.31     0.4760
   1.32     0.4772
   1.33     0.4783
   1.34     0.4795
   1.35     0.4806
   1.36     0.4818
   1.37     0.4829
   1.38     0.4841
   1.39     0.4853
   1.40     0.4864
   1.41     0.4876
   1.42     0.4888
   1.43     0.4900
   1.44     0.4912
   1.45     0.4924
   1.46     0.4936
   1.47     0.4948
   1.48     0.4960
   1.49     0.4972
   1.50     0.4984
   1.51     0.4996
   1.52     0.5009
   1.53     0.5021
   1.54     0.5033
   1.55     0.5046
   1.56     0.5058
   1.57     0.5071
   1.58     0.5083
   1.59     0.5096
   1.60     0.5109
   1.61     0.5121
   1.62     0.5134
   1.63     0.5147
   1.64     0.5160
   1.65     0.5173
   1.66     0.5185
   1.67     0.5198
   1.68     0.5212
   1.69     0.5225
   1.70     0.5238
   1.71     0.5251
   1.72     0.5264
   1.73     0.5278
   1.74     0.5291
   1.75     0.5304
   1.76     0.5318
   1.77     0.5331
   1.78     0.5345
   1.79     0.5359
   1.80     0.5372
   1.81     0.5386
   1.82     0.5400
   1.83     0.5414
   1.84     0.5428
   1.85     0.5442
   1.86     0.5456
   1.87     0.5470
   1.88     0.5484
   1.89     0.5498
   1.90     0.5512
   1.91     0.5526
   1.92     0.5541
   1.93     0.5555
   1.94     0.5570
   1.95     0.5584
   1.96     0.5599
   1.97     0.5614
   1.98     0.5628
   1.99     0.5643
   2.00     0.5658
   2.01     0.5673
   2.02     0.5688
   2.03     0.5703
   2.04     0.5718
   2.05     0.5733
   2.06     0.5748
   2.07     0.5763
   2.08     0.5779
   2.09     0.5794
   2.10     0.5810
   2.11     0.5825
   2.12     0.5841
   2.13     0.5856
   2.14     0.5872
   2.15     0.5888
   2.16     0.5904
   2.17     0.5920
   2.18     0.5936
   2.19     0.5952
   2.20     0.5968
   2.21     0.5984
   2.22     0.6000
   2.23     0.6017
   2.24     0.6033
   2.25     0.6050
   2.26     0.6066
   2.27     0.6083
   2.28     0.6100
   2.29     0.6116
   2.30     0.6133
   2.31     0.6150
   2.32     0.6167
   2.33     0.6184
   2.34     0.6201
   2.35     0.6218
   2.36     0.6236
   2.37     0.6253
   2.38     0.6271
   2.39     0.6288
   2.40     0.6306
   2.41     0.6323
   2.42     0.6341
   2.43     0.6359
   2.44     0.6377
   2.45     0.6395
   2.46     0.6413
   2.47     0.6431
   2.48     0.6449
   2.49     0.6467
   2.50     0.6486
   2.51     0.6504
   2.52     0.6523
   2.53     0.6541
   2.54     0.6560
   2.55     0.6579
   2.56     0.6598
   2.57     0.6617
   2.58     0.6636
   2.59     0.6655
   2.60     0.6674
   2.61     0.6694
   2.62     0.6713
   2.63     0.6733
   2.64     0.6752
   2.65     0.6772
   2.66     0.6792
   2.67     0.6811
   2.68     0.6831
   2.69     0.6851
   2.70     0.6872
   2.71     0.6892
   2.72     0.6912
   2.73     0.6932
   2.74     0.6953
   2.75     0.6974
   2.76     0.6994
   2.77     0.7015
   2.78     0.7036
   2.79     0.7057
   2.80     0.7078
   2.81     0.7099
   2.82     0.7121
   2.83     0.7142
   2.84     0.7163
   2.85     0.7185
   2.86     0.7207
   2.87     0.7229
   2.88     0.7251
   2.89     0.7273
   2.90     0.7295
   2.91     0.7317
   2.92     0.7339
   2.93     0.7362
   2.94     0.7384
   2.95     0.7407
   2.96     0.7430
   2.97     0.7453
   2.98     0.7476
   2.99     0.7499
   3.00     0.7522
   3.01     0.7545
   3.02     0.7569
   3.03     0.7592
   3.04     0.7616
   3.05     0.7640
   3.06     0.7664
   3.07     0.7688
   3.08     0.7712
   3.09     0.7736
   3.10     0.7761
   3.11     0.7785
   3.12     0.7810
   3.13     0.7835
   3.14     0.7859
   3.15     0.7884
   3.16     0.7910
   3.17     0.7935
   3.18     0.7960
   3.19     0.7986
   3.20     0.8012
   3.21     0.8037
   3.22     0.8063
   3.23     0.8089
   3.24     0.8116
   3.25     0.8142
   3.26     0.8168
   3.27     0.8195
   3.28     0.8222
   3.29     0.8249
   3.30     0.8276
   3.31     0.8303
   3.32     0.8330
   3.33     0.8358
   3.34     0.8385
   3.35     0.8413
   3.36     0.8441
   3.37     0.8469
   3.38     0.8497
   3.39     0.8525
   3.40     0.8554
   3.41     0.8582
   3.42     0.8611
   3.43     0.8640
   3.44     0.8669
   3.45     0.8699
   3.46     0.8728
   3.47     0.8758
   3.48     0.8787
   3.49     0.8817
   3.50     0.8847
   3.51     0.8878
   3.52     0.8908
   3.53     0.8938
   3.54     0.8969
   3.55     0.9000
   3.56     0.9031
   3.57     0.9062
   3.58     0.9094
   3.59     0.9125
   3.60     0.9157
   3.61     0.9189
   3.62     0.9221
   3.63     0.9254
   3.64     0.9286
   3.65     0.9319
   3.66     0.9352
   3.67     0.9385
   3.68     0.9418
   3.69     0.9451
   3.70     0.9485
   3.71     0.9519
   3.72     0.9553
   3.73     0.9587
   3.74     0.9621
   3.75     0.9656
   3.76     0.9691
   3.77     0.9726
   3.78     0.9761
   3.79     0.9796
   3.80     0.9832
   3.81     0.9867
   3.82     0.9904
   3.83     0.9940
   3.84     0.9976
   3.85     1.0013
   3.86     1.0050
   3.87     1.0087
   3.88     1.0124
   3.89     1.0162
   3.90     1.0199
   3.91     1.0237
   3.92     1.0276
   3.93     1.0314
   3.94     1.0353
   3.95     1.0392
   3.96     1.0431
   3.97     1.0470
   3.98     1.0510
   3.99     1.0550
   4.00     1.0590
   4.01     1.0630
   4.02     1.0671
   4.03     1.0712
   4.04     1.0753
   4.05     1.0794
   4.06     1.0836
   4.07     1.0878
   4.08     1.0920
   4.09     1.0962
   4.10     1.1005
   4.11     1.1048
   4.12     1.1091
   4.13     1.1135
   4.14     1.1178
   4.15     1.1222
   4.16     1.1267
   4.17     1.1311
   4.18     1.1356
   4.19     1.1402
   4.20     1.1447
   4.21     1.1493
   4.22     1.1539
   4.23     1.1585
   4.24     1.1632
   4.25     1.1679
   4.26     1.1726
   4.27     1.1774
   4.28     1.1822
   4.29     1.1870
   4.30     1.1919
   4.31     1.1968
   4.32     1.2017
   4.33     1.2066
   4.34     1.2116
   4.35     1.2167
   4.36     1.2217
   4.37     1.2268
   4.38     1.2319
   4.39     1.2371
   4.40     1.2423
   4.41     1.2475
   4.42     1.2528
   4.43     1.2581
   4.44     1.2634
   4.45     1.2688
   4.46     1.2742
   4.47     1.2797
   4.48     1.2852
   4.49     1.2907
   4.50     1.2963
   4.51     1.3019
   4.52     1.3075
   4.53     1.3132
   4.54     1.3190
   4.55     1.3247
   4.56     1.3305
   4.57     1.3364
   4.58     1.3423
   4.59     1.3482
   4.60     1.3542
   4.61     1.3602
   4.62     1.3663
   4.63     1.3724
   4.64     1.3786
   4.65     1.3848
   4.66     1.3911
   4.67     1.3974
   4.68     1.4037
   4.69     1.4101
   4.70     1.4165
   4.71     1.4230
   4.72     1.4296
   4.73     1.4361
   4.74     1.4428
   4.75     1.4495
   4.76     1.4562
   4.77     1.4630
   4.78     1.4699
   4.79     1.4768
   4.80     1.4837
   4.81     1.4907
   4.82     1.4978
   4.83     1.5049
   4.84     1.5121
   4.85     1.5193
   4.86     1.5266
   4.87     1.5339
   4.88     1.5413
   4.89     1.5488
   4.90     1.5563
   4.91     1.5639
   4.92     1.5715
   4.93     1.5792
   4.94     1.5870
   4.95     1.5948
   4.96     1.6027
   4.97     1.6107
   4.98     1.6187
   4.99     1.6268
   5.00     1.6350
   5.01     1.6432
   5.02     1.6515
   5.03     1.6599
   5.04     1.6683
   5.05     1.6768
   5.06     1.6854
   5.07     1.6941
   5.08     1.7028
   5.09     1.7116
   5.10     1.7205
   5.11     1.7294
   5.12     1.7385
   5.13     1.7476
   5.14     1.7568
   5.15     1.7661
   5.16     1.7754
   5.17     1.7849
   5.18     1.7944
   5.19     1.8040
   5.20     1.8137
   5.21     1.8235
   5.22     1.8334
   5.23     1.8434
   5.24     1.8534
   5.25     1.8636
   5.26     1.8738
   5.27     1.8841
   5.28     1.8946
   5.29     1.9051
   5.30     1.9157
   5.31     1.9265
   5.32     1.9373
   5.33     1.9482
   5.34     1.9593
   5.35     1.9704
   5.36     1.9817
   5.37     1.9930
   5.38     2.0045
   5.39     2.0161
   5.40     2.0278
   5.41     2.0396
   5.42     2.0515
   5.43     2.0635
   5.44     2.0757
   5.45     2.0880
   5.46     2.1004
   5.47     2.1129
   5.48     2.1256
   5.49     2.1384
   5.50     2.1513
   5.51     2.1644
   5.52     2.1776
   5.53     2.1909
   5.54     2.2043
   5.55     2.2179
   5.56     2.2317
   5.57     2.2456
   5.58     2.2596
   5.59     2.2738
   5.60     2.2881
   5.61     2.3026
   5.62     2.3173
   5.63     2.3321
   5.64     2.3471
   5.65     2.3622
   5.66     2.3775
   5.67     2.3930
   5.68     2.4086
   5.69     2.4245
   5.70     2.4405
   5.71     2.4566
   5.72     2.4730
   5.73     2.4896
   5.74     2.5063
   5.75     2.5232
   5.76     2.5404
   5.77     2.5577
   5.78     2.5752
   5.79     2.5930
   5.80     2.6109
   5.81     2.6291
   5.82     2.6475
   5.83     2.6661
   5.84     2.6849
   5.85     2.7040
   5.86     2.7233
   5.87     2.7428
   5.88     2.7626
   5.89     2.7826
   5.90     2.8029
   5.91     2.8234
   5.92     2.8442
   5.93     2.8652
   5.94     2.8866
   5.95     2.9082
   5.96     2.9300
   5.97     2.9522
   5.98     2.9747
   5.99     2.9974
   6.00     3.0204
   6.01     3.0438
   6.02     3.0675
   6.03     3.0915
   6.04     3.1158
   6.05     3.1404
   6.06     3.1654
   6.07     3.1908
   6.08     3.2165
   6.09     3.2425
   6.10     3.2689
   6.11     3.2957
   6.12     3.3229
   6.13     3.3505
   6.14     3.3784
   6.15     3.4068
   6.16     3.4356
   6.17     3.4648
   6.18     3.4945
   6.19     3.5246
   6.20     3.5551
   6.21     3.5861
   6.22     3.6176
   6.23     3.6496
   6.24     3.6821
   6.25     3.7151
   6.26     3.7486
   6.27     3.7826
   6.28     3.8171
   6.29     3.8523
   6.30     3.8880
   6.31     3.9242
   6.32     3.9611
   6.33     3.9986
   6.34     4.0367
   6.35     4.0754
   6.36     4.1148
   6.37     4.1549
   6.38     4.1956
   6.39     4.2371
   6.40     4.2793
   6.41     4.3222
   6.42     4.3659
   6.43     4.4104
   6.44     4.4556
   6.45     4.5017
   6.46     4.5486
   6.47     4.5964
   6.48     4.6451
   6.49     4.6947
   6.50     4.7452
   6.51     4.7967
   6.52     4.8492
   6.53     4.9027
   6.54     4.9573
   6.55     5.0129
   6.56     5.0696
   6.57     5.1275
   6.58     5.1865
   6.59     5.2468
   6.60     5.3083
   6.61     5.3710
   6.62     5.4351
   6.63     5.5005
   6.64     5.5674
   6.65     5.6357
   6.66     5.7054
   6.67     5.7767
   6.68     5.8496
   6.69     5.9242
   6.70     6.0004
   6.71     6.0783
   6.72     6.1581
   6.73     6.2397
   6.74     6.3232
   6.75     6.4087
   6.76     6.4963
   6.77     6.5860
   6.78     6.6779
   6.79     6.7721
   6.80     6.8687
   6.81     6.9677
   6.82     7.0692
   6.83     7.1734
   6.84     7.2803
   6.85     7.3900
   6.86     7.5027
   6.87     7.6184
   6.88     7.7373
   6.89     7.8595
   6.90     7.9851
   6.91     8.1143
   6.92     8.2472
   6.93     8.3840
   6.94     8.5248
   6.95     8.6697
   6.96     8.8191
   6.97     8.9730
   6.98     9.1317
   6.99     9.2953
   7.00     9.4642
   7.01     9.6384
   7.02     9.8184
   7.03    10.0043
   7.04    10.1964
   7.05    10.3950
   7.06    10.6004
   7.07    10.8131
   7.08    11.0332
   7.09    11.2612
   7.10    11.4976
   7.11    11.7427
   7.12    11.9969
   7.13    12.2608
   7.14    12.5350
   7.15    12.8198
   7.16    13.1161
   7.17    13.4243
   7.18    13.7451
   7.19    14.0794
   7.20    14.4279
   7.21    14.7914
   7.22    15.1709
   7.23    15.5673
   7.24    15.9817
   7.25    16.4153
   7.26    16.8692
   7.27    17.3448
   7.28    17.8437
   7.29    18.3673
   7.30    18.9174
   7.31    19.4958
   7.32    20.1046
   7.33    20.7460
   7.34    21.4224
   7.35    22.1365
   7.36    22.8912
   7.37    23.6897
   7.38    24.5354
   7.39    25.4324
   7.40    26.3848
   7.41    27.3973
   7.42    28.4753
   7.43    29.6245
   7.44    30.8513
   7.45    32.1630
   7.46    33.5676
   7.47    35.0740
   7.48    36.6923
   7.49    38.4338
   7.50    40.3112
   7.51    42.3389
   7.52    44.5331
   7.53    46.9121
   7.54    49.4970
   7.55    52.3113
   7.56    55.3823
   7.57    58.7411
   7.58    62.4230
   7.59    66.4690
   7.60    70.9258
   7.61    75.8475
   7.62    81.2963
   7.63    87.3437
   7.64    94.0721
   7.65   101.5763
   7.66   109.9646
   7.67   119.3605
   7.68   129.9031
   7.69   141.7470
   7.70   155.0608
   7.71   170.0218
   7.72   186.8065
   7.73   205.5745
   7.74   226.4409
   7.75   249.4353
   7.76   274.4434
   7.77   301.1311
   7.78   328.8582
   7.79   356.6001
   7.80   382.9156
   7.81   406.0088
   7.82   423.9291
   7.83   434.9079
   7.84   437.7544
   7.85   432.1650
   7.86   418.8075
   7.87   399.1391
   7.88   375.0450
   7.89   348.4509
   7.90   321.0338
   7.91   294.0779
   7.92   268.4547
   7.93   244.6786
   7.94   222.9910
   7.95   203.4443
   7.96   185.9719
   7.97   170.4389
   7.98   156.6784
   7.99   144.5135
   8.00   133.7712
   8.01   124.2897
   8.02   115.9223
   8.03   108.5379
   8.04   102.0214
   8.05    96.2723
   8.06    91.2036
   8.07    86.7403
   8.08    82.8177
   8.09    79.3808
   8.10    76.3825
   8.11    73.7828
   8.12    71.5481
   8.13    69.6502
   8.14    68.0660
   8.15    66.7764
   8.16    65.7668
   8.17    65.0259
   8.18    64.5461
   8.19    64.3230
   8.20    64.3556
   8.21    64.6458
   8.22    65.1992
   8.23    66.0245
   8.24    67.1343
   8.25    68.5451
   8.26    70.2775
   8.27    72.3573
   8.28    74.8155
   8.29    77.6891
   8.30    81.0221
   8.31    84.8663
   8.32    89.2822
   8.33    94.3401
   8.34   100.1210
   8.35   106.7170
   8.36   114.2320
   8.37   122.7805
   8.38   132.4849
   8.39   143.4703
   8.40   155.8545
   8.41   169.7320
   8.42   185.1478
   8.43   202.0610
   8.44   220.2947
   8.45   239.4758
   8.46   258.9753
   8.47   277.8695
   8.48   294.9568
   8.49   308.8623
   8.50   318.2470
   8.51   322.0847
   8.52   319.9171
   8.53   311.9794
   8.54   299.1344
   8.55   282.6495
   8.56   263.9143
   8.57   244.2029
   8.58   224.5340
   8.59   205.6297
   8.60   187.9391
   8.61   171.6949
   8.62   156.9745
   8.63   143.7542
   8.64   131.9502
   8.65   121.4477
   8.66   112.1205
   8.67   103.8424
   8.68    96.4942
   8.69    89.9664
   8.70    84.1610
   8.71    78.9913
   8.72    74.3811
   8.73    70.2637
   8.74    66.5811
   8.75    63.2830
   8.76    60.3256
   8.77    57.6710
   8.78    55.2863
   8.79    53.1429
   8.80    51.2158
   8.81    49.4836
   8.82    47.9275
   8.83    46.5309
   8.84    45.2798
   8.85    44.1616
   8.86    43.1655
   8.87    42.2821
   8.88    41.5030
   8.89    40.8212
   8.90    40.2304
   8.91    39.7254
   8.92    39.3015
   8.93    38.9548
   8.94    38.6822
   8.95    38.4808
   8.96    38.3485
   8.97    38.2838
   8.98    38.2854
   8.99    38.3526
   9.00    38.4852
   9.01    38.6833
   9.02    38.9474
   9.03    39.2787
   9.04    39.6786
   9.05    40.1491
   9.06    40.6926
   9.07    41.3122
   9.08    42.0113
   9.09    42.7942
   9.10    43.6655
   9.11    44.6310
   9.12    45.6971
   9.13    46.8709
   9.14    48.1608
   9.15    49.5764
   9.16    51.1285
   9.17    52.8294
   9.18    54.6930
   9.19    56.7355
   9.20    58.9750
   9.21    61.4324
   9.22    64.1315
   9.23    67.0997
   9.24    70.3683
   9.25    73.9731
   9.26    77.9556
   9.27    82.3630
   9.28    87.2500
   9.29    92.6791
   9.30    98.7216
   9.31   105.4592
   9.32   112.9840
   9.33   121.3990
   9.34   130.8179
   9.35   141.3626
   9.36   153.1589
   9.37   166.3291
   9.38   180.9778
   9.39   197.1730
   9.40   214.9170
   9.41   234.1108
   9.42   254.5145
   9.43   275.7153
   9.44   297.1187
   9.45   317.9859
   9.46   337.5280
   9.47   355.0434
   9.48   370.0495
   9.49   382.3424
   9.50   391.9397
   9.51   398.9237
   9.52   403.2624
   9.53   404.7036
   9.54   402.8072
   9.55   397.1132
   9.56   387.3725
   9.57   373.7311
   9.58   356.7790
   9.59   337.4484
   9.60   316.8209
   9.61   295.9329
   9.62   275.6415
   9.63   256.5694
   9.64   239.1115
   9.65   223.4753
   9.66   209.7327
   9.67   197.8673
   9.68   187.8124
   9.69   179.4788
   9.70   172.7730
   9.71   167.6096
   9.72   163.9179
   9.73   161.6462
   9.74   160.7630
   9.75   161.2573
   9.76   163.1375
   9.77   166.4277
   9.78   171.1632
   9.79   177.3811
   9.80   185.1068
   9.81   194.3329
   9.82   204.9892
   9.83   216.9032
   9.84   229.7528
   9.85   243.0203
   9.86   255.9640
   9.87   267.6338
   9.88   276.9559
   9.89   282.8975
   9.90   284.6794
   9.91   281.9678
   9.92   274.9615
   9.93   264.3342
   9.94   251.0589
   9.95   236.1933
   9.96   220.7016
   9.97   205.3524
   9.98   190.6891
   9.99   177.0497
  10.00   164.6094
  10.01   153.4270
  10.02   143.4856
  10.03   134.7237
  10.04   127.0568
  10.05   120.3926
  10.06   114.6395
  10.07   109.7116
  10.08   105.5319
  10.09   102.0333
  10.10    99.1586
  10.11    96.8605
  10.12    95.1012
  10.13    93.8517
  10.14    93.0915
  10.15    92.8083
  10.16    92.9975
  10.17    93.6623
  10.18    94.8139
  10.19    96.4713
  10.20    98.6621
  10.21   101.4225
  10.22   104.7979
  10.23   108.8437
  10.24   113.6246
  10.25   119.2150
  10.26   125.6974
  10.27   133.1596
  10.28   141.6890
  10.29   151.3635
  10.30   162.2367
  10.31   174.3150
  10.32   187.5268
  10.33   201.6826
  10.34   216.4310
  10.35   231.2229
  10.36   245.3016
  10.37   257.7468
  10.38   267.5894
  10.39   273.9908
  10.40   276.4409
  10.41   274.8979
  10.42   269.8057
  10.43   261.9832
  10.44   252.4347
  10.45   242.1608
  10.46   232.0242
  10.47   222.6862
  10.48   214.5995
  10.49   208.0313
  10.50   203.0946
  10.51   199.7743
  10.52   197.9403
  10.53   197.3513
  10.54   197.6526
  10.55   198.3814
  10.56   198.9937
  10.57   198.9223
  10.58   197.6672
  10.59   194.8941
  10.60   190.5060
  10.61   184.6540
  10.62   177.6838
  10.63   170.0409
  10.64   162.1751
  10.65   154.4726
  10.66   147.2239
  10.67   140.6216
  10.68   134.7759
  10.69   129.7357
  10.70   125.5097
  10.71   122.0830
  10.72   119.4299
  10.73   117.5218
  10.74   116.3330
  10.75   115.8440
  10.76   116.0432
  10.77   116.9288
  10.78   118.5090
  10.79   120.8028
  10.80   123.8406
  10.81   127.6639
  10.82   132.3248
  10.83   137.8856
  10.84   144.4155
  10.85   151.9872
  10.86   160.6687
  10.87   170.5120
  10.88   181.5346
  10.89   193.6940
  10.90   206.8538
  10.91   220.7445
  10.92   234.9268
  10.93   248.7717
  10.94   261.4807
  10.95   272.1648
  10.96   279.9891
  10.97   284.3531
  10.98   285.0457
  10.99   282.3074
  11.00   276.7709
  11.01   269.3075
  11.02   260.8473
  11.03   252.2357
  11.04   244.1532
  11.05   237.0968
  11.06   231.3988
  11.07   227.2647
  11.08   224.8133
  11.09   224.1114
  11.10   225.2013
  11.11   228.1202
  11.12   232.9134
  11.13   239.6428
  11.14   248.3913
  11.15   259.2637
  11.16   272.3840
  11.17   287.8883
  11.18   305.9113
  11.19   326.5656
  11.20   349.9100
  11.21   375.9073
  11.22   404.3733
  11.23   434.9239
  11.24   466.9364
  11.25   499.5461
  11.26   531.7001
  11.27   562.2743
  11.28   590.2327
  11.29   614.7834
  11.30   635.4801
  11.31   652.2393
  11.32   665.2819
  11.33   675.0297
  11.34   681.9950
  11.35   686.6894
  11.36   689.5610
  11.37   690.9588
  11.38   691.1139
  11.39   690.1337
  11.40   688.0058
  11.41   684.6100
  11.42   679.7379
  11.43   673.1235
  11.44   664.4921
  11.45   653.6283
  11.46   640.4555
  11.47   625.1059
  11.48   607.9540
  11.49   589.5852
  11.50   570.6909
  11.51   551.9113
  11.52   533.6736
  11.53   516.0813
  11.54   498.8927
  11.55   481.6050
  11.56   463.6259
  11.57   444.4816
  11.58   423.9872
  11.59   402.3151
  11.60   379.9436
  11.61   357.5230
  11.62   335.7235
  11.63   315.1201
  11.64   296.1321
  11.65   279.0115
  11.66   263.8586
  11.67   250.6477
  11.68   239.2502
  11.69   229.4506
  11.70   220.9595
  11.71   213.4277
  11.72   206.4711
  11.73   199.7118
  11.74   192.8311
  11.75   185.6215
  11.76   178.0166
  11.77   170.0854
  11.78   161.9935
  11.79   153.9495
  11.80   146.1556
  11.81   138.7761
  11.82   131.9253
  11.83   125.6698
  11.84   120.0373
  11.85   115.0287
  11.86   110.6278
  11.87   106.8100
  11.88   103.5474
  11.89   100.8135
  11.90    98.5852
  11.91    96.8445
  11.92    95.5792
  11.93    94.7839
  11.94    94.4600
  11.95    94.6163
  11.96    95.2690
  11.97    96.4423
  11.98    98.1681
  11.99   100.4865
  12.00   103.4454
  12.01   107.0991
  12.02   111.5066
  12.03   116.7279
  12.04   122.8175
  12.05   129.8143
  12.06   137.7270
  12.07   146.5125
  12.08   156.0493
  12.09   166.1045
  12.10   176.3043
  12.11   186.1158
  12.12   194.8616
  12.13   201.7817
  12.14   206.1515
  12.15   207.4328
  12.16   205.4087
  12.17   200.2444
  12.18   192.4429
  12.19   182.7187
  12.20   171.8422
  12.21   160.5127
  12.22   149.2851
  12.23   138.5498
  12.24   128.5480
  12.25   119.4029
  12.26   111.1539
  12.27   103.7860
  12.28    97.2523
  12.29    91.4900
  12.30    86.4303
  12.31    82.0051
  12.32    78.1507
  12.33    74.8095
  12.34    71.9306
  12.35    69.4702
  12.36    67.3909
  12.37    65.6619
  12.38    64.2580
  12.39    63.1591
  12.40    62.3504
  12.41    61.8216
  12.42    61.5667
  12.43    61.5841
  12.44    61.8765
  12.45    62.4509
  12.46    63.3186
  12.47    64.4958
  12.48    66.0036
  12.49    67.8686
  12.50    70.1229
  12.51    72.8051
  12.52    75.9600
  12.53    79.6390
  12.54    83.8995
  12.55    88.8038
  12.56    94.4165
  12.57   100.8001
  12.58   108.0080
  12.59   116.0725
  12.60   124.9891
  12.61   134.6927
  12.62   145.0296
  12.63   155.7254
  12.64   166.3593
  12.65   176.3582
  12.66   185.0294
  12.67   191.6458
  12.68   195.5789
  12.69   196.4454
  12.70   194.2117
  12.71   189.2078
  12.72   182.0434
  12.73   173.4651
  12.74   164.2129
  12.75   154.9190
  12.76   146.0611
  12.77   137.9594
  12.78   130.7988
  12.79   124.6582
  12.80   119.5370
  12.81   115.3755
  12.82   112.0674
  12.83   109.4687
  12.84   107.4066
  12.85   105.6925
  12.86   104.1444
  12.87   102.6140
  12.88   101.0138
  12.89    99.3320
  12.90    97.6292
  12.91    96.0187
  12.92    94.6386
  12.93    93.6279
  12.94    93.1104
  12.95    93.1897
  12.96    93.9503
  12.97    95.4628
  12.98    97.7887
  12.99   100.9845
  13.00   105.1025
  13.01   110.1884
  13.02   116.2746
  13.03   123.3676
  13.04   131.4290
  13.05   140.3491
  13.06   149.9149
  13.07   159.7764
  13.08   169.4244
  13.09   178.1953
  13.10   185.3240
  13.11   190.0528
  13.12   191.7822
  13.13   190.2163
  13.14   185.4416
  13.15   177.9029
  13.16   168.2863
  13.17   157.3636
  13.18   145.8545
  13.19   134.3429
  13.20   123.2476
  13.21   112.8328
  13.22   103.2382
  13.23    94.5134
  13.24    86.6486
  13.25    79.5985
  13.26    73.2990
  13.27    67.6786
  13.28    62.6655
  13.29    58.1909
  13.30    54.1918
  13.31    50.6113
  13.32    47.3990
  13.33    44.5104
  13.34    41.9068
  13.35    39.5544
  13.36    37.4238
  13.37    35.4894
  13.38    33.7292
  13.39    32.1238
  13.40    30.6565
  13.41    29.3127
  13.42    28.0795
  13.43    26.9459
  13.44    25.9019
  13.45    24.9391
  13.46    24.0500
  13.47    23.2278
  13.48    22.4667
  13.49    21.7615
  13.50    21.1076
  13.51    20.5009
  13.52    19.9376
  13.53    19.4146
  13.54    18.9291
  13.55    18.4787
  13.56    18.0617
  13.57    17.6764
  13.58    17.3215
  13.59    16.9962
  13.60    16.6995
  13.61    16.4309
  13.62    16.1900
  13.63    15.9765
  13.64    15.7903
  13.65    15.6315
  13.66    15.5006
  13.67    15.3979
  13.68    15.3242
  13.69    15.2805
  13.70    15.2680
  13.71    15.2885
  13.72    15.3442
  13.73    15.4381
  13.74    15.5738
  13.75    15.7559
  13.76    15.9894
  13.77    16.2798
  13.78    16.6333
  13.79    17.0558
  13.80    17.5531
  13.81    18.1301
  13.82    18.7900
  13.83    19.5324
  13.84    20.3513
  13.85    21.2323
  13.86    22.1494
  13.87    23.0626
  13.88    23.9176
  13.89    24.6495
  13.90    25.1917
  13.91    25.4887
  13.92    25.5098
  13.93    25.2572
  13.94    24.7662
  13.95    24.0954
  13.96    23.3141
  13.97    22.4889
  13.98    21.6759
  13.99    20.9168
  14.00    20.2392
  14.01    19.6585
  14.02    19.1807
  14.03    18.8045
  14.04    18.5231
  14.05    18.3253
  14.06    18.1962
  14.07    18.1176
  14.08    18.0685
  14.09    18.0260
  14.10    17.9676
  14.11    17.8742
  14.12    17.7333
  14.13    17.5418
  14.14    17.3069
  14.15    17.0446
  14.16    16.7759
  14.17    16.5232
  14.18    16.3069
  14.19    16.1438
  14.20    16.0465
  14.21    16.0243
  14.22    16.0837
  14.23    16.2295
  14.24    16.4656
  14.25    16.7954
  14.26    17.2220
  14.27    17.7484
  14.28    18.3769
  14.29    19.1085
  14.30    19.9413
  14.31    20.8693
  14.32    21.8801
  14.33    22.9527
  14.34    24.0555
  14.35    25.1443
  14.36    26.1629
  14.37    27.0450
  14.38    27.7222
  14.39    28.1336
  14.40    28.2392
  14.41    28.0294
  14.42    27.5294
  14.43    26.7948
  14.44    25.8997
  14.45    24.9229
  14.46    23.9362
  14.47    22.9976
  14.48    22.1490
  14.49    21.4181
  14.50    20.8213
  14.51    20.3669
  14.52    20.0585
  14.53    19.8973
  14.54    19.8833
  14.55    20.0168
  14.56    20.2988
  14.57    20.7313
  14.58    21.3169
  14.59    22.0584
  14.60    22.9578
  14.61    24.0140
  14.62    25.2219
  14.63    26.5686
  14.64    28.0315
  14.65    29.5750
  14.66    31.1480
  14.67    32.6833
  14.68    34.1004
  14.69    35.3121
  14.70    36.2360
  14.71    36.8088
  14.72    36.9979
  14.73    36.8069
  14.74    36.2709
  14.75    35.4462
  14.76    34.3982
  14.77    33.1942
  14.78    31.8995
  14.79    30.5767
  14.80    29.2844
  14.81    28.0738
  14.82    26.9871
  14.83    26.0559
  14.84    25.3015
  14.85    24.7366
  14.86    24.3673
  14.87    24.1948
  14.88    24.2164
  14.89    24.4254
  14.90    24.8097
  14.91    25.3508
  14.92    26.0210
  14.93    26.7815
  14.94    27.5810
  14.95    28.3553
  14.96    29.0304
  14.97    29.5292
  14.98    29.7825
  14.99    29.7424
  15.00    29.3943
  15.01    28.7618
  15.02    27.9017
  15.03    26.8915
  15.04    25.8142
  15.05    24.7452
  15.06    23.7449
  15.07    22.8571
  15.08    22.1101
  15.09    21.5200
  15.10    21.0945
  15.11    20.8347
  15.12    20.7374
  15.13    20.7949
  15.14    20.9944
  15.15    21.3170
  15.16    21.7351
  15.17    22.2121
  15.18    22.7016
  15.19    23.1492
  15.20    23.4970
  15.21    23.6916
  15.22    23.6936
  15.23    23.4865
  15.24    23.0820
  15.25    22.5173
  15.26    21.8471
  15.27    21.1321
  15.28    20.4290
  15.29    19.7840
  15.30    19.2300
  15.31    18.7865
  15.32    18.4609
  15.33    18.2492
  15.34    18.1378
  15.35    18.1039
  15.36    18.1164
  15.37    18.1386
  15.38    18.1313
  15.39    18.0586
  15.40    17.8938
  15.41    17.6254
  15.42    17.2590
  15.43    16.8154
  15.44    16.3247
  15.45    15.8187
  15.46    15.3249
  15.47    14.8613
  15.48    14.4358
  15.49    14.0454
  15.50    13.6794
  15.51    13.3218
  15.52    12.9561
  15.53    12.5692
  15.54    12.1543
  15.55    11.7120
  15.56    11.2479
  15.57    10.7709
  15.58    10.2894
  15.59     9.8106
  15.60     9.3396
  15.61     8.8801
  15.62     8.4353
  15.63     8.0085
  15.64     7.6026
  15.65     7.2201
  15.66     6.8627
  15.67     6.5312
  15.68     6.2255
  15.69     5.9447
  15.70     5.6874
  15.71     5.4518
  15.72     5.2362
  15.73     5.0387
  15.74     4.8576
  15.75     4.6910
  15.76     4.5377
  15.77     4.3961
  15.78     4.2651
  15.79     4.1435
  15.80     4.0306
  15.81     3.9253
  15.82     3.8270
  15.83     3.7350
  15.84     3.6487
  15.85     3.5676
  15.86     3.4912
  15.87     3.4192
  15.88     3.3511
  15.89     3.2866
  15.90     3.2254
  15.91     3.1672
  15.92     3.1118
  15.93     3.0590
  15.94     3.0086
  15.95     2.9603
  15.96     2.9141
  15.97     2.8698
  15.98     2.8273
  15.99     2.7865
  16.00     2.7472
  16.01     2.7095
  16.02     2.6732
  16.03     2.6383
  16.04     2.6046
  16.05     2.5721
  16.06     2.5407
  16.07     2.5104
  16.08     2.4812
  16.09     2.4529
  16.10     2.4255
  16.11     2.3990
  16.12     2.3733
  16.13     2.3483
  16.14     2.3239
  16.15     2.3001
  16.16     2.2769
  16.17     2.2541
  16.18     2.2317
  16.19     2.2098
  16.20     2.1884
  16.21     2.1674
  16.22     2.1469
  16.23     2.1269
  16.24     2.1075
  16.25     2.0885
  16.26     2.0701
  16.27     2.0521
  16.28     2.0346
  16.29     2.0176
  16.30     2.0010
  16.31     1.9848
  16.32     1.9691
  16.33     1.9538
  16.34     1.9390
  16.35     1.9245
  16.36     1.9104
  16.37     1.8967
  16.38     1.8833
  16.39     1.8704
  16.40     1.8577
  16.41     1.8455
  16.42     1.8335
  16.43     1.8219
  16.44     1.8105
  16.45     1.7994
  16.46     1.7884
  16.47     1.7776
  16.48     1.7669
  16.49     1.7561
  16.50     1.7455
  16.51     1.7349
  16.52     1.7245
  16.53     1.7144
  16.54     1.7045
  16.55     1.6951
  16.56     1.6860
  16.57     1.6775
  16.58     1.6695
  16.59     1.6620
  16.60     1.6551
  16.61     1.6489
  16.62     1.6432
  16.63     1.6381
  16.64     1.6336
  16.65     1.6297
  16.66     1.6265
  16.67     1.6240
  16.68     1.6222
  16.69     1.6213
  16.70     1.6212
  16.71     1.6219
  16.72     1.6233
  16.73     1.6251
  16.74     1.6269
  16.75     1.6280
  16.76     1.6277
  16.77     1.6253
  16.78     1.6200
  16.79     1.6116
  16.80     1.6001
  16.81     1.5858
  16.82     1.5694
  16.83     1.5516
  16.84     1.5331
  16.85     1.5147
  16.86     1.4966
  16.87     1.4792
  16.88     1.4627
  16.89     1.4471
  16.90     1.4324
  16.91     1.4186
  16.92     1.4057
  16.93     1.3936
  16.94     1.3822
  16.95     1.3714
  16.96     1.3611
  16.97     1.3514
  16.98     1.3422
  16.99     1.3334
  17.00     1.3249
  17.01     1.3169
  17.02     1.3091
  17.03     1.3016
  17.04     1.2944
  17.05     1.2874
  17.06     1.2807
  17.07     1.2741
  17.08     1.2677
  17.09     1.2614
  17.10     1.2552
  17.11     1.2490
  17.12     1.2429
  17.13     1.2369
  17.14     1.2310
  17.15     1.2251
  17.16     1.2194
  17.17     1.2138
  17.18     1.2083
  17.19     1.2030
  17.20     1.1979
  17.21     1.1929
  17.22     1.1882
  17.23     1.1836
  17.24     1.1792
  17.25     1.1750
  17.26     1.1709
  17.27     1.1671
  17.28     1.1634
  17.29     1.1599
  17.30     1.1565
  17.31     1.1531
  17.32     1.1497
  17.33     1.1463
  17.34     1.1426
  17.35     1.1388
  17.36     1.1346
  17.37     1.1301
  17.38     1.1253
  17.39     1.1202
  17.40     1.1149
  17.41     1.1094
  17.42     1.1039
  17.43     1.0983
  17.44     1.0929
  17.45     1.0875
  17.46     1.0823
  17.47     1.0773
  17.48     1.0725
  17.49     1.0678
  17.50     1.0633
  17.51     1.0589
  17.52     1.0547
  17.53     1.0506
  17.54     1.0466
  17.55     1.0428
  17.56     1.0391
  17.57     1.0355
  17.58     1.0321
  17.59     1.0287
  17.60     1.0255
  17.61     1.0223
  17.62     1.0193
  17.63     1.0164
  17.64     1.0136
  17.65     1.0110
  17.66     1.0084
  17.67     1.0060
  17.68     1.0038
  17.69     1.0017
  17.70     0.9998
  17.71     0.9980
  17.72     0.9965
  17.73     0.9952
  17.74     0.9941
  17.75     0.9933
  17.76     0.9928
  17.77     0.9926
  17.78     0.9928
  17.79     0.9935
  17.80     0.9946
  17.81     0.9962
  17.82     0.9984
  17.83     1.0013
  17.84     1.0049
  17.85     1.0093
  17.86     1.0145
  17.87     1.0205
  17.88     1.0272
  17.89     1.0347
  17.90     1.0425
  17.91     1.0504
  17.92     1.0580
  17.93     1.0646
  17.94     1.0696
  17.95     1.0723
  17.96     1.0723
  17.97     1.0693
  17.98     1.0634
  17.99     1.0550
  18.00     1.0447
  18.01     1.0332
  18.02     1.0212
  18.03     1.0091
  18.04     0.9975
  18.05     0.9866
  18.06     0.9765
  18.07     0.9673
  18.08     0.9590
  18.09     0.9515
  18.10     0.9449
  18.11     0.9390
  18.12     0.9338
  18.13     0.9292
  18.14     0.9252
  18.15     0.9218
  18.16     0.9188
  18.17     0.9164
  18.18     0.9144
  18.19     0.9128
  18.20     0.9117
  18.21     0.9110
  18.22     0.9107
  18.23     0.9108
  18.24     0.9113
  18.25     0.9123
  18.26     0.9137
  18.27     0.9156
  18.28     0.9180
  18.29     0.9209
  18.30     0.9245
  18.31     0.9287
  18.32     0.9337
  18.33     0.9396
  18.34     0.9463
  18.35     0.9541
  18.36     0.9629
  18.37     0.9730
  18.38     0.9844
  18.39     0.9974
  18.40     1.0120
  18.41     1.0286
  18.42     1.0475
  18.43     1.0688
  18.44     1.0930
  18.45     1.1201
  18.46     1.1504
  18.47     1.1838
  18.48     1.2201
  18.49     1.2585
  18.50     1.2980
  18.51     1.3369
  18.52     1.3728
  18.53     1.4032
  18.54     1.4252
  18.55     1.4367
  18.56     1.4362
  18.57     1.4240
  18.58     1.4013
  18.59     1.3707
  18.60     1.3348
  18.61     1.2964
  18.62     1.2577
  18.63     1.2204
  18.64     1.1856
  18.65     1.1539
  18.66     1.1255
  18.67     1.1005
  18.68     1.0788
  18.69     1.0602
  18.70     1.0445
  18.71     1.0314
  18.72     1.0208
  18.73     1.0124
  18.74     1.0061
  18.75     1.0019
  18.76     0.9995
  18.77     0.9989
  18.78     1.0001
  18.79     1.0030
  18.80     1.0077
  18.81     1.0143
  18.82     1.0227
  18.83     1.0331
  18.84     1.0456
  18.85     1.0604
  18.86     1.0777
  18.87     1.0977
  18.88     1.1208
  18.89     1.1473
  18.90     1.1777
  18.91     1.2124
  18.92     1.2520
  18.93     1.2968
  18.94     1.3475
  18.95     1.4045
  18.96     1.4680
  18.97     1.5380
  18.98     1.6140
  18.99     1.6947
  19.00     1.7780
  19.01     1.8604
  19.02     1.9375
  19.03     2.0037
  19.04     2.0535
  19.05     2.0821
  19.06     2.0868
  19.07     2.0677
  19.08     2.0276
  19.09     1.9712
  19.10     1.9043
  19.11     1.8324
  19.12     1.7602
  19.13     1.6910
  19.14     1.6273
  19.15     1.5703
  19.16     1.5206
  19.17     1.4784
  19.18     1.4436
  19.19     1.4158
  19.20     1.3947
  19.21     1.3801
  19.22     1.3716
  19.23     1.3690
  19.24     1.3723
  19.25     1.3815
  19.26     1.3965
  19.27     1.4177
  19.28     1.4453
  19.29     1.4797
  19.30     1.5214
  19.31     1.5710
  19.32     1.6291
  19.33     1.6965
  19.34     1.7738
  19.35     1.8616
  19.36     1.9602
  19.37     2.0692
  19.38     2.1876
  19.39     2.3131
  19.40     2.4419
  19.41     2.5683
  19.42     2.6851
  19.43     2.7838
  19.44     2.8562
  19.45     2.8960
  19.46     2.9007
  19.47     2.8717
  19.48     2.8145
  19.49     2.7374
  19.50     2.6490
  19.51     2.5577
  19.52     2.4702
  19.53     2.3914
  19.54     2.3245
  19.55     2.2717
  19.56     2.2341
  19.57     2.2123
  19.58     2.2066
  19.59     2.2174
  19.60     2.2448
  19.61     2.2893
  19.62     2.3512
  19.63     2.4309
  19.64     2.5286
  19.65     2.6443
  19.66     2.7769
  19.67     2.9245
  19.68     3.0836
  19.69     3.2484
  19.70     3.4111
  19.71     3.5618
  19.72     3.6898
  19.73     3.7858
  19.74     3.8435
  19.75     3.8619
  19.76     3.8455
  19.77     3.8033
  19.78     3.7471
  19.79     3.6886
  19.80     3.6384
  19.81     3.6045
  19.82     3.5922
  19.83     3.6040
  19.84     3.6395
  19.85     3.6955
  19.86     3.7659
  19.87     3.8414
  19.88     3.9102
  19.89     3.9588
  19.90     3.9741
  19.91     3.9462
  19.92     3.8704
  19.93     3.7483
  19.94     3.5871
  19.95     3.3979
  19.96     3.1927
  19.97     2.9823
  19.98     2.7755
  19.99     2.5784
  20.00     2.3945
